Unit Serial No : Xe_Mono_Cal
Integration Time : 2 ms
Time Average: 15
Binning Average: 10
FFT Smoothing: 10%
Project Name : Project Name
Sample Name : 0068
Measurement No : 1
Measurement Time : 11/11/2024   12:00:00

Pixel	Wavelength(nm)	Wavenumber(1/cm)	Intensity(Counts)
1    	171.7139      	58236.3993    	1173    
2    	172.0962      	58107.0281    	1175    
3    	172.4786      	57978.2150    	1178    
4    	172.8610      	57849.9615    	1179    
5    	173.2434      	57722.2641    	1180    
6    	173.6258      	57595.1190    	1185    
7    	174.0083      	57468.5178    	1185    
8    	174.3908      	57342.4618    	1184    
9    	174.7734      	57216.9476    	1183    
10   	175.1560      	57091.9668    	1183    
11   	175.5386      	56967.5258    	1183    
12   	175.9213      	56843.6064    	1183    
13   	176.3040      	56720.2201    	1184    
14   	176.6867      	56597.3536    	1185    
15   	177.0695      	56475.0085    	1190    
16   	177.4523      	56353.1815    	1192    
17   	177.8351      	56231.8645    	1193    
18   	178.2180      	56111.0591    	1193    
19   	178.6009      	55990.7621    	1193    
20   	178.9838      	55870.9703    	1193    
21   	179.3668      	55751.6757    	1193    
22   	179.7498      	55632.8800    	1192    
23   	180.1329      	55514.5802    	1192    
24   	180.5159      	55396.7683    	1191    
25   	180.8991      	55279.4461    	1192    
26   	181.2822      	55162.6104    	1195    
27   	181.6654      	55046.2538    	1191    
28   	182.0486      	54930.3823    	1191    
29   	182.4319      	54814.9840    	1191    
30   	182.8152      	54700.0557    	1191    
31   	183.1985      	54585.6038    	1190    
32   	183.5818      	54471.6163    	1187    
33   	183.9652      	54358.0949    	1184    
34   	184.3487      	54245.0322    	1183    
35   	184.7321      	54132.4298    	1182    
36   	185.1156      	54020.2851    	1181    
37   	185.4992      	53908.5953    	1181    
38   	185.8828      	53797.3530    	1181    
39   	186.2664      	53686.5601    	1181    
40   	186.6500      	53576.2139    	1182    
41   	187.0337      	53466.3116    	1182    
42   	187.4174      	53356.8463    	1182    
43   	187.8011      	53247.8196    	1182    
44   	188.1849      	53139.2290    	1180    
45   	188.5687      	53031.0675    	1180    
46   	188.9526      	52923.3368    	1183    
47   	189.3364      	52816.0345    	1181    
48   	189.7204      	52709.1579    	1182    
49   	190.1043      	52602.7003    	1182    
50   	190.4883      	52496.6635    	1183    
51   	190.8723      	52391.0449    	1184    
52   	191.2564      	52285.8380    	1184    
53   	191.6405      	52181.0444    	1187    
54   	192.0246      	52076.6618    	1188    
55   	192.4088      	51972.6877    	1188    
56   	192.7930      	51869.1156    	1187    
57   	193.1772      	51765.9474    	1186    
58   	193.5614      	51663.1806    	1186    
59   	193.9457      	51560.8129    	1186    
60   	194.3301      	51458.8380    	1186    
61   	194.7144      	51357.2575    	1187    
62   	195.0988      	51256.0693    	1186    
63   	195.4833      	51155.2671    	1186    
64   	195.8678      	51054.8526    	1187    
65   	196.2523      	50954.8237    	1186    
66   	196.6368      	50855.1781    	1185    
67   	197.0214      	50755.9096    	1181    
68   	197.4060      	50657.0201    	1180    
69   	197.7906      	50558.5073    	1183    
70   	198.1753      	50460.3654    	1184    
71   	198.5601      	50362.5959    	1185    
72   	198.9448      	50265.1969    	1184    
73   	199.3296      	50168.1662    	1183    
74   	199.7144      	50071.4980    	1183    
75   	200.0993      	49975.1939    	1182    
76   	200.4842      	49879.2520    	1182    
77   	200.8691      	49783.6701    	1181    
78   	201.2540      	49688.4426    	1180    
79   	201.6390      	49593.5712    	1179    
80   	202.0241      	49499.0540    	1179    
81   	202.4091      	49404.8851    	1180    
82   	202.7942      	49311.0701    	1180    
83   	203.1794      	49217.5997    	1181    
84   	203.5645      	49124.4719    	1185    
85   	203.9497      	49031.6922    	1186    
86   	204.3350      	48939.2513    	1187    
87   	204.7202      	48847.1510    	1187    
88   	205.1055      	48755.3859    	1186    
89   	205.4909      	48663.9613    	1184    
90   	205.8763      	48572.8681    	1178    
91   	206.2617      	48482.1046    	1177    
92   	206.6471      	48391.6760    	1176    
93   	207.0326      	48301.5735    	1178    
94   	207.4181      	48211.7988    	1181    
95   	207.8036      	48122.3501    	1182    
96   	208.1892      	48033.2222    	1183    
97   	208.5748      	47944.4203    	1185    
98   	208.9605      	47855.9356    	1186    
99   	209.3462      	47767.7666    	1187    
100  	209.7319      	47679.9183    	1187    
101  	210.1177      	47592.3822    	1187    
102  	210.5034      	47505.1600    	1187    
103  	210.8893      	47418.2466    	1187    
104  	211.2751      	47331.6439    	1188    
105  	211.6610      	47245.3501    	1184    
106  	212.0470      	47159.3636    	1184    
107  	212.4329      	47073.6828    	1189    
108  	212.8189      	46988.3026    	1190    
109  	213.2050      	46903.2249    	1191    
110  	213.5910      	46818.4480    	1190    
111  	213.9771      	46733.9670    	1189    
112  	214.3633      	46649.7871    	1188    
113  	214.7494      	46565.8966    	1189    
114  	215.1356      	46482.3040    	1189    
115  	215.5219      	46399.0044    	1188    
116  	215.9081      	46315.9930    	1188    
117  	216.2944      	46233.2716    	1188    
118  	216.6808      	46150.8354    	1188    
119  	217.0672      	46068.6894    	1188    
120  	217.4536      	45986.8257    	1188    
121  	217.8400      	45905.2459    	1190    
122  	218.2265      	45823.9455    	1194    
123  	218.6130      	45742.9293    	1193    
124  	218.9996      	45662.1895    	1192    
125  	219.3862      	45581.7280    	1192    
126  	219.7728      	45501.5400    	1193    
127  	220.1594      	45421.6274    	1196    
128  	220.5461      	45341.9886    	1192    
129  	220.9328      	45262.6225    	1192    
130  	221.3196      	45183.5274    	1192    
131  	221.7064      	45104.6990    	1195    
132  	222.0932      	45026.1389    	1196    
133  	222.4801      	44947.8459    	1196    
134  	222.8670      	44869.8155    	1196    
135  	223.2539      	44792.0525    	1194    
136  	223.6409      	44714.5494    	1194    
137  	224.0279      	44637.3049    	1192    
138  	224.4149      	44560.3238    	1192    
139  	224.8020      	44483.5987    	1193    
140  	225.1891      	44407.1313    	1194    
141  	225.5762      	44330.9204    	1194    
142  	225.9634      	44254.9617    	1195    
143  	226.3506      	44179.2568    	1191    
144  	226.7378      	44103.8046    	1192    
145  	227.1251      	44028.6038    	1191    
146  	227.5124      	43953.6531    	1190    
147  	227.8997      	43878.9483    	1191    
148  	228.2871      	43804.4912    	1185    
149  	228.6745      	43730.2776    	1185    
150  	229.0620      	43656.3121    	1184    
151  	229.4494      	43582.5877    	1184    
152  	229.8369      	43509.1061    	1185    
153  	230.2245      	43435.8661    	1184    
154  	230.6121      	43362.8637    	1183    
155  	230.9997      	43290.1005    	1182    
156  	231.3873      	43217.5754    	1183    
157  	231.7750      	43145.2872    	1183    
158  	232.1628      	43073.2320    	1183    
159  	232.5505      	43001.4142    	1182    
160  	232.9383      	42929.8271    	1180    
161  	233.3261      	42858.4695    	1180    
162  	233.7140      	42787.3459    	1181    
163  	234.1019      	42716.4497    	1180    
164  	234.4898      	42645.7824    	1181    
165  	234.8777      	42575.3403    	1184    
166  	235.2657      	42505.1278    	1186    
167  	235.6538      	42435.1382    	1186    
168  	236.0418      	42365.3733    	1185    
169  	236.4299      	42295.8319    	1185    
170  	236.8181      	42226.5103    	1183    
171  	237.2062      	42157.4101    	1183    
172  	237.5944      	42088.5303    	1184    
173  	237.9827      	42019.8698    	1183    
174  	238.3709      	41951.4276    	1186    
175  	238.7592      	41883.2000    	1189    
176  	239.1476      	41815.1886    	1190    
177  	239.5359      	41747.3923    	1190    
178  	239.9243      	41679.8077    	1191    
179  	240.3128      	41612.4362    	1191    
180  	240.7012      	41545.2769    	1191    
181  	241.0898      	41478.3288    	1191    
182  	241.4783      	41411.5908    	1191    
183  	241.8669      	41345.0595    	1189    
184  	242.2555      	41278.7363    	1189    
185  	242.6441      	41212.6205    	1192    
186  	243.0328      	41146.7083    	1188    
187  	243.4215      	41081.0041    	1188    
188  	243.8103      	41015.5017    	1188    
189  	244.1991      	40950.2001    	1188    
190  	244.5879      	40885.1036    	1189    
191  	244.9767      	40820.2061    	1187    
192  	245.3656      	40755.5092    	1185    
193  	245.7545      	40691.0121    	1183    
194  	246.1435      	40626.7137    	1182    
195  	246.5325      	40562.6106    	1182    
196  	246.9215      	40498.7071    	1182    
197  	247.3105      	40434.9946    	1182    
198  	247.6996      	40371.4797    	1183    
199  	248.0887      	40308.1591    	1184    
200  	248.4779      	40245.0294    	1185    
201  	248.8671      	40182.0923    	1184    
202  	249.2563      	40119.3443    	1185    
203  	249.6456      	40056.7895    	1189    
204  	250.0349      	39994.4222    	1190    
205  	250.4242      	39932.2439    	1189    
206  	250.8136      	39870.2538    	1185    
207  	251.2030      	39808.4486    	1185    
208  	251.5924      	39746.8323    	1185    
209  	251.9818      	39685.3992    	1185    
210  	252.3713      	39624.1510    	1186    
211  	252.7609      	39563.0844    	1185    
212  	253.1504      	39502.2033    	1189    
213  	253.5400      	39441.5022    	1190    
214  	253.9297      	39380.9826    	1191    
215  	254.3194      	39320.6414    	1191    
216  	254.7090      	39260.4824    	1191    
217  	255.0988      	39200.5002    	1190    
218  	255.4886      	39140.6964    	1189    
219  	255.8784      	39081.0678    	1189    
220  	256.2682      	39021.6159    	1189    
221  	256.6581      	38962.3423    	1189    
222  	257.0480      	38903.2439    	1189    
223  	257.4379      	38844.3152    	1191    
224  	257.8279      	38785.5603    	1187    
225  	258.2179      	38726.9782    	1187    
226  	258.6080      	38668.5683    	1186    
227  	258.9980      	38610.3298    	1186    
228  	259.3882      	38552.2619    	1189    
229  	259.7783      	38494.3638    	1189    
230  	260.1685      	38436.6349    	1189    
231  	260.5587      	38379.0699    	1186    
232  	260.9489      	38321.6726    	1186    
233  	261.3392      	38264.4467    	1186    
234  	261.7295      	38207.3826    	1187    
235  	262.1199      	38150.4839    	1188    
236  	262.5103      	38093.7501    	1188    
237  	262.9007      	38037.1759    	1189    
238  	263.2911      	37980.7695    	1189    
239  	263.6816      	37924.5257    	1188    
240  	264.0721      	37868.4395    	1187    
241  	264.4627      	37812.5146    	1185    
242  	264.8533      	37756.7547    	1186    
243  	265.2439      	37701.1503    	1189    
244  	265.6346      	37645.7051    	1189    
245  	266.0252      	37590.4184    	1190    
246  	266.4160      	37535.2853    	1190    
247  	266.8067      	37480.3136    	1192    
248  	267.1975      	37425.4985    	1192    
249  	267.5883      	37370.8349    	1188    
250  	267.9792      	37316.3266    	1187    
251  	268.3701      	37261.9728    	1186    
252  	268.7610      	37207.7771    	1187    
253  	269.1520      	37153.7304    	1189    
254  	269.5430      	37099.8320    	1189    
255  	269.9340      	37046.0899    	1190    
256  	270.3251      	36992.4990    	1190    
257  	270.7162      	36939.0546    	1191    
258  	271.1073      	36885.7644    	1191    
259  	271.4985      	36832.6195    	1191    
260  	271.8897      	36779.6234    	1191    
261  	272.2809      	36726.7755    	1192    
262  	272.6722      	36674.0751    	1191    
263  	273.0635      	36621.5216    	1190    
264  	273.4548      	36569.1144    	1186    
265  	273.8462      	36516.8530    	1186    
266  	274.2376      	36464.7326    	1190    
267  	274.6290      	36412.7608    	1192    
268  	275.0205      	36360.9288    	1193    
269  	275.4120      	36309.2402    	1192    
270  	275.8035      	36257.6943    	1191    
271  	276.1951      	36206.2906    	1191    
272  	276.5867      	36155.0284    	1192    
273  	276.9783      	36103.9072    	1192    
274  	277.3700      	36052.9263    	1191    
275  	277.7617      	36002.0814    	1190    
276  	278.1534      	35951.3796    	1189    
277  	278.5452      	35900.8126    	1189    
278  	278.9370      	35850.3837    	1190    
279  	279.3289      	35800.0924    	1190    
280  	279.7208      	35749.9381    	1191    
281  	280.1127      	35699.9202    	1195    
282  	280.5046      	35650.0382    	1196    
283  	280.8966      	35600.2916    	1196    
284  	281.2886      	35550.6758    	1196    
285  	281.6806      	35501.1982    	1196    
286  	282.0727      	35451.8504    	1194    
287  	282.4648      	35402.6358    	1189    
288  	282.8570      	35353.5539    	1188    
289  	283.2491      	35304.6078    	1188    
290  	283.6414      	35255.7857    	1191    
291  	284.0336      	35207.0985    	1193    
292  	284.4259      	35158.5418    	1195    
293  	284.8182      	35110.1150    	1197    
294  	285.2106      	35061.8140    	1196    
295  	285.6029      	35013.6457    	1197    
296  	285.9954      	34965.6021    	1197    
297  	286.3878      	34917.6864    	1197    
298  	286.7803      	34869.8982    	1196    
299  	287.1728      	34822.2369    	1195    
300  	287.5654      	34774.7020    	1195    
301  	287.9579      	34727.2930    	1197    
302  	288.3506      	34680.0058    	1193    
303  	288.7432      	34632.8472    	1194    
304  	289.1359      	34585.8094    	1193    
305  	289.5286      	34538.8992    	1194    
306  	289.9214      	34492.1088    	1198    
307  	290.3142      	34445.4413    	1199    
308  	290.7070      	34398.8964    	1198    
309  	291.0999      	34352.4735    	1197    
310  	291.4927      	34306.1721    	1196    
311  	291.8857      	34259.9918    	1196    
312  	292.2786      	34213.9285    	1193    
313  	292.6716      	34167.9889    	1191    
314  	293.0646      	34122.1654    	1189    
315  	293.4577      	34076.4647    	1190    
316  	293.8508      	34030.8791    	1190    
317  	294.2439      	33985.4118    	1189    
318  	294.6371      	33940.0624    	1189    
319  	295.0302      	33894.8302    	1189    
320  	295.4235      	33849.7150    	1188    
321  	295.8167      	33804.7128    	1188    
322  	296.2100      	33759.8300    	1185    
323  	296.6033      	33715.0629    	1186    
324  	296.9967      	33670.4073    	1191    
325  	297.3901      	33625.8665    	1192    
326  	297.7835      	33581.4399    	1192    
327  	298.1770      	33537.1271    	1189    
328  	298.5705      	33492.9276    	1189    
329  	298.9640      	33448.8411    	1188    
330  	299.3576      	33404.8671    	1188    
331  	299.7512      	33361.0052    	1188    
332  	300.1448      	33317.2516    	1187    
333  	300.5385      	33273.6125    	1190    
334  	300.9322      	33230.0809    	1191    
335  	301.3259      	33186.6630    	1192    
336  	301.7196      	33143.3518    	1193    
337  	302.1134      	33100.1501    	1194    
338  	302.5073      	33057.0575    	1195    
339  	302.9011      	33014.0737    	1197    
340  	303.2950      	32971.1949    	1197    
341  	303.6890      	32928.4273    	1197    
342  	304.0829      	32885.7672    	1196    
343  	304.4769      	32843.2110    	1196    
344  	304.8709      	32800.7647    	1198    
345  	305.2650      	32758.4214    	1194    
346  	305.6591      	32716.1841    	1193    
347  	306.0533      	32674.0523    	1194    
348  	306.4474      	32632.0256    	1194    
349  	306.8416      	32590.1037    	1195    
350  	307.2358      	32548.2860    	1194    
351  	307.6301      	32506.5724    	1193    
352  	308.0244      	32464.9591    	1192    
353  	308.4187      	32423.4522    	1193    
354  	308.8131      	32382.0449    	1192    
355  	309.2075      	32340.7400    	1191    
356  	309.6019      	32299.5404    	1191    
357  	309.9964      	32258.4392    	1190    
358  	310.3909      	32217.4394    	1190    
359  	310.7854      	32176.5405    	1190    
360  	311.1800      	32135.7390    	1189    
361  	311.5746      	32095.0408    	1190    
362  	311.9692      	32054.4425    	1194    
363  	312.3639      	32013.9404    	1195    
364  	312.7586      	31973.5406    	1194    
365  	313.1534      	31933.2365    	1191    
366  	313.5481      	31893.0307    	1190    
367  	313.9429      	31852.9229    	1189    
368  	314.3378      	31812.9127    	1188    
369  	314.7326      	31772.9999    	1189    
370  	315.1275      	31733.1840    	1188    
371  	315.5225      	31693.4648    	1191    
372  	315.9174      	31653.8417    	1194    
373  	316.3124      	31614.3116    	1195    
374  	316.7075      	31574.8800    	1196    
375  	317.1025      	31535.5406    	1195    
376  	317.4977      	31496.2961    	1195    
377  	317.8928      	31457.1491    	1195    
378  	318.2879      	31418.0933    	1194    
379  	318.6831      	31379.1314    	1193    
380  	319.0784      	31340.2630    	1192    
381  	319.4737      	31301.4847    	1193    
382  	319.8690      	31262.8024    	1194    
383  	320.2643      	31224.2125    	1189    
384  	320.6597      	31185.7118    	1190    
385  	321.0551      	31147.3060    	1190    
386  	321.4505      	31108.9887    	1191    
387  	321.8460      	31070.7627    	1195    
388  	322.2415      	31032.6275    	1195    
389  	322.6370      	30994.5829    	1195    
390  	323.0326      	30956.6286    	1191    
391  	323.4282      	30918.7642    	1189    
392  	323.8238      	30880.9894    	1189    
393  	324.2195      	30843.3038    	1189    
394  	324.6152      	30805.7044    	1189    
395  	325.0109      	30768.1965    	1189    
396  	325.4067      	30730.7740    	1190    
397  	325.8025      	30693.4425    	1191    
398  	326.1983      	30656.1958    	1192    
399  	326.5942      	30619.0366    	1192    
400  	326.9901      	30581.9645    	1191    
401  	327.3860      	30544.9792    	1191    
402  	327.7820      	30508.0804    	1194    
403  	328.1780      	30471.2678    	1193    
404  	328.5741      	30434.5383    	1194    
405  	328.9701      	30397.8972    	1194    
406  	329.3662      	30361.3387    	1195    
407  	329.7624      	30324.8679    	1195    
408  	330.1585      	30288.4791    	1191    
409  	330.5547      	30252.1747    	1191    
410  	330.9510      	30215.9572    	1191    
411  	331.3472      	30179.8208    	1192    
412  	331.7435      	30143.7680    	1194    
413  	332.1399      	30107.7956    	1193    
414  	332.5363      	30071.9090    	1192    
415  	332.9326      	30036.1051    	1192    
416  	333.3291      	30000.3809    	1192    
417  	333.7256      	29964.7415    	1193    
418  	334.1221      	29929.1812    	1194    
419  	334.5186      	29893.7053    	1196    
420  	334.9152      	29858.3079    	1197    
421  	335.3118      	29822.9915    	1198    
422  	335.7084      	29787.7559    	1199    
423  	336.1051      	29752.6007    	1195    
424  	336.5018      	29717.5257    	1196    
425  	336.8985      	29682.5306    	1200    
426  	337.2953      	29647.6152    	1200    
427  	337.6921      	29612.7764    	1201    
428  	338.0889      	29578.0195    	1201    
