Unit Serial No : Xe_Mono_Cal
Integration Time : 2 ms
Time Average: 15
Binning Average: 10
FFT Smoothing: 7%
Project Name : Project Name
Sample Name : 0068
Measurement No : 1
Measurement Time : 11/11/2024   11:36:31

Pixel	Wavelength(nm)	Wavenumber(1/cm)	Intensity(Counts)
1    	171.7139      	58236.3993    	1384    
2    	172.0962      	58107.0281    	1385    
3    	172.4786      	57978.2150    	1389    
4    	172.8610      	57849.9615    	1390    
5    	173.2434      	57722.2641    	1392    
6    	173.6258      	57595.1190    	1399    
7    	174.0083      	57468.5178    	1400    
8    	174.3908      	57342.4618    	1400    
9    	174.7734      	57216.9476    	1401    
10   	175.1560      	57091.9668    	1402    
11   	175.5386      	56967.5258    	1402    
12   	175.9213      	56843.6064    	1409    
13   	176.3040      	56720.2201    	1413    
14   	176.6867      	56597.3536    	1413    
15   	177.0695      	56475.0085    	1417    
16   	177.4523      	56353.1815    	1419    
17   	177.8351      	56231.8645    	1421    
18   	178.2180      	56111.0591    	1420    
19   	178.6009      	55990.7621    	1421    
20   	178.9838      	55870.9703    	1422    
21   	179.3668      	55751.6757    	1425    
22   	179.7498      	55632.8800    	1426    
23   	180.1329      	55514.5802    	1427    
24   	180.5159      	55396.7683    	1427    
25   	180.8991      	55279.4461    	1427    
26   	181.2822      	55162.6104    	1429    
27   	181.6654      	55046.2538    	1426    
28   	182.0486      	54930.3823    	1426    
29   	182.4319      	54814.9840    	1427    
30   	182.8152      	54700.0557    	1427    
31   	183.1985      	54585.6038    	1428    
32   	183.5818      	54471.6163    	1425    
33   	183.9652      	54358.0949    	1423    
34   	184.3487      	54245.0322    	1421    
35   	184.7321      	54132.4298    	1421    
36   	185.1156      	54020.2851    	1421    
37   	185.4992      	53908.5953    	1421    
38   	185.8828      	53797.3530    	1421    
39   	186.2664      	53686.5601    	1421    
40   	186.6500      	53576.2139    	1421    
41   	187.0337      	53466.3116    	1420    
42   	187.4174      	53356.8463    	1417    
43   	187.8011      	53247.8196    	1417    
44   	188.1849      	53139.2290    	1415    
45   	188.5687      	53031.0675    	1416    
46   	188.9526      	52923.3368    	1420    
47   	189.3364      	52816.0345    	1418    
48   	189.7204      	52709.1579    	1418    
49   	190.1043      	52602.7003    	1416    
50   	190.4883      	52496.6635    	1416    
51   	190.8723      	52391.0449    	1416    
52   	191.2564      	52285.8380    	1415    
53   	191.6405      	52181.0444    	1417    
54   	192.0246      	52076.6618    	1419    
55   	192.4088      	51972.6877    	1420    
56   	192.7930      	51869.1156    	1420    
57   	193.1772      	51765.9474    	1420    
58   	193.5614      	51663.1806    	1420    
59   	193.9457      	51560.8129    	1421    
60   	194.3301      	51458.8380    	1421    
61   	194.7144      	51357.2575    	1422    
62   	195.0988      	51256.0693    	1421    
63   	195.4833      	51155.2671    	1422    
64   	195.8678      	51054.8526    	1423    
65   	196.2523      	50954.8237    	1423    
66   	196.6368      	50855.1781    	1423    
67   	197.0214      	50755.9096    	1420    
68   	197.4060      	50657.0201    	1421    
69   	197.7906      	50558.5073    	1425    
70   	198.1753      	50460.3654    	1426    
71   	198.5601      	50362.5959    	1425    
72   	198.9448      	50265.1969    	1423    
73   	199.3296      	50168.1662    	1420    
74   	199.7144      	50071.4980    	1420    
75   	200.0993      	49975.1939    	1420    
76   	200.4842      	49879.2520    	1420    
77   	200.8691      	49783.6701    	1419    
78   	201.2540      	49688.4426    	1420    
79   	201.6390      	49593.5712    	1420    
80   	202.0241      	49499.0540    	1420    
81   	202.4091      	49404.8851    	1419    
82   	202.7942      	49311.0701    	1419    
83   	203.1794      	49217.5997    	1420    
84   	203.5645      	49124.4719    	1423    
85   	203.9497      	49031.6922    	1422    
86   	204.3350      	48939.2513    	1421    
87   	204.7202      	48847.1510    	1419    
88   	205.1055      	48755.3859    	1419    
89   	205.4909      	48663.9613    	1419    
90   	205.8763      	48572.8681    	1415    
91   	206.2617      	48482.1046    	1415    
92   	206.6471      	48391.6760    	1415    
93   	207.0326      	48301.5735    	1419    
94   	207.4181      	48211.7988    	1422    
95   	207.8036      	48122.3501    	1422    
96   	208.1892      	48033.2222    	1422    
97   	208.5748      	47944.4203    	1423    
98   	208.9605      	47855.9356    	1422    
99   	209.3462      	47767.7666    	1421    
100  	209.7319      	47679.9183    	1420    
101  	210.1177      	47592.3822    	1421    
102  	210.5034      	47505.1600    	1422    
103  	210.8893      	47418.2466    	1424    
104  	211.2751      	47331.6439    	1424    
105  	211.6610      	47245.3501    	1421    
106  	212.0470      	47159.3636    	1422    
107  	212.4329      	47073.6828    	1427    
108  	212.8189      	46988.3026    	1428    
109  	213.2050      	46903.2249    	1427    
110  	213.5910      	46818.4480    	1423    
111  	213.9771      	46733.9670    	1420    
112  	214.3633      	46649.7871    	1420    
113  	214.7494      	46565.8966    	1419    
114  	215.1356      	46482.3040    	1419    
115  	215.5219      	46399.0044    	1419    
116  	215.9081      	46315.9930    	1420    
117  	216.2944      	46233.2716    	1420    
118  	216.6808      	46150.8354    	1420    
119  	217.0672      	46068.6894    	1421    
120  	217.4536      	45986.8257    	1422    
121  	217.8400      	45905.2459    	1423    
122  	218.2265      	45823.9455    	1426    
123  	218.6130      	45742.9293    	1424    
124  	218.9996      	45662.1895    	1424    
125  	219.3862      	45581.7280    	1425    
126  	219.7728      	45501.5400    	1425    
127  	220.1594      	45421.6274    	1429    
128  	220.5461      	45341.9886    	1426    
129  	220.9328      	45262.6225    	1426    
130  	221.3196      	45183.5274    	1426    
131  	221.7064      	45104.6990    	1430    
132  	222.0932      	45026.1389    	1433    
133  	222.4801      	44947.8459    	1434    
134  	222.8670      	44869.8155    	1434    
135  	223.2539      	44792.0525    	1434    
136  	223.6409      	44714.5494    	1435    
137  	224.0279      	44637.3049    	1436    
138  	224.4149      	44560.3238    	1436    
139  	224.8020      	44483.5987    	1436    
140  	225.1891      	44407.1313    	1436    
141  	225.5762      	44330.9204    	1436    
142  	225.9634      	44254.9617    	1436    
143  	226.3506      	44179.2568    	1434    
144  	226.7378      	44103.8046    	1434    
145  	227.1251      	44028.6038    	1433    
146  	227.5124      	43953.6531    	1434    
147  	227.8997      	43878.9483    	1436    
148  	228.2871      	43804.4912    	1432    
149  	228.6745      	43730.2776    	1432    
150  	229.0620      	43656.3121    	1432    
151  	229.4494      	43582.5877    	1432    
152  	229.8369      	43509.1061    	1433    
153  	230.2245      	43435.8661    	1430    
154  	230.6121      	43362.8637    	1428    
155  	230.9997      	43290.1005    	1428    
156  	231.3873      	43217.5754    	1428    
157  	231.7750      	43145.2872    	1427    
158  	232.1628      	43073.2320    	1426    
159  	232.5505      	43001.4142    	1426    
160  	232.9383      	42929.8271    	1426    
161  	233.3261      	42858.4695    	1426    
162  	233.7140      	42787.3459    	1427    
163  	234.1019      	42716.4497    	1426    
164  	234.4898      	42645.7824    	1427    
165  	234.8777      	42575.3403    	1430    
166  	235.2657      	42505.1278    	1431    
167  	235.6538      	42435.1382    	1431    
168  	236.0418      	42365.3733    	1429    
169  	236.4299      	42295.8319    	1429    
170  	236.8181      	42226.5103    	1428    
171  	237.2062      	42157.4101    	1429    
172  	237.5944      	42088.5303    	1431    
173  	237.9827      	42019.8698    	1432    
174  	238.3709      	41951.4276    	1437    
175  	238.7592      	41883.2000    	1440    
176  	239.1476      	41815.1886    	1441    
177  	239.5359      	41747.3923    	1441    
178  	239.9243      	41679.8077    	1442    
179  	240.3128      	41612.4362    	1443    
180  	240.7012      	41545.2769    	1445    
181  	241.0898      	41478.3288    	1445    
182  	241.4783      	41411.5908    	1448    
183  	241.8669      	41345.0595    	1448    
184  	242.2555      	41278.7363    	1449    
185  	242.6441      	41212.6205    	1452    
186  	243.0328      	41146.7083    	1450    
187  	243.4215      	41081.0041    	1450    
188  	243.8103      	41015.5017    	1450    
189  	244.1991      	40950.2001    	1450    
190  	244.5879      	40885.1036    	1450    
191  	244.9767      	40820.2061    	1448    
192  	245.3656      	40755.5092    	1446    
193  	245.7545      	40691.0121    	1445    
194  	246.1435      	40626.7137    	1446    
195  	246.5325      	40562.6106    	1445    
196  	246.9215      	40498.7071    	1447    
197  	247.3105      	40434.9946    	1448    
198  	247.6996      	40371.4797    	1450    
199  	248.0887      	40308.1591    	1451    
200  	248.4779      	40245.0294    	1451    
201  	248.8671      	40182.0923    	1450    
202  	249.2563      	40119.3443    	1451    
203  	249.6456      	40056.7895    	1454    
204  	250.0349      	39994.4222    	1454    
205  	250.4242      	39932.2439    	1455    
206  	250.8136      	39870.2538    	1453    
207  	251.2030      	39808.4486    	1452    
208  	251.5924      	39746.8323    	1452    
209  	251.9818      	39685.3992    	1453    
210  	252.3713      	39624.1510    	1453    
211  	252.7609      	39563.0844    	1452    
212  	253.1504      	39502.2033    	1456    
213  	253.5400      	39441.5022    	1458    
214  	253.9297      	39380.9826    	1458    
215  	254.3194      	39320.6414    	1457    
216  	254.7090      	39260.4824    	1457    
217  	255.0988      	39200.5002    	1457    
218  	255.4886      	39140.6964    	1456    
219  	255.8784      	39081.0678    	1456    
220  	256.2682      	39021.6159    	1457    
221  	256.6581      	38962.3423    	1457    
222  	257.0480      	38903.2439    	1458    
223  	257.4379      	38844.3152    	1458    
224  	257.8279      	38785.5603    	1455    
225  	258.2179      	38726.9782    	1455    
226  	258.6080      	38668.5683    	1454    
227  	258.9980      	38610.3298    	1455    
228  	259.3882      	38552.2619    	1460    
229  	259.7783      	38494.3638    	1460    
230  	260.1685      	38436.6349    	1460    
231  	260.5587      	38379.0699    	1458    
232  	260.9489      	38321.6726    	1456    
233  	261.3392      	38264.4467    	1457    
234  	261.7295      	38207.3826    	1458    
235  	262.1199      	38150.4839    	1458    
236  	262.5103      	38093.7501    	1458    
237  	262.9007      	38037.1759    	1458    
238  	263.2911      	37980.7695    	1459    
239  	263.6816      	37924.5257    	1459    
240  	264.0721      	37868.4395    	1459    
241  	264.4627      	37812.5146    	1459    
242  	264.8533      	37756.7547    	1460    
243  	265.2439      	37701.1503    	1464    
244  	265.6346      	37645.7051    	1463    
245  	266.0252      	37590.4184    	1463    
246  	266.4160      	37535.2853    	1463    
247  	266.8067      	37480.3136    	1463    
248  	267.1975      	37425.4985    	1462    
249  	267.5883      	37370.8349    	1458    
250  	267.9792      	37316.3266    	1458    
251  	268.3701      	37261.9728    	1458    
252  	268.7610      	37207.7771    	1462    
253  	269.1520      	37153.7304    	1464    
254  	269.5430      	37099.8320    	1463    
255  	269.9340      	37046.0899    	1463    
256  	270.3251      	36992.4990    	1462    
257  	270.7162      	36939.0546    	1463    
258  	271.1073      	36885.7644    	1463    
259  	271.4985      	36832.6195    	1462    
260  	271.8897      	36779.6234    	1462    
261  	272.2809      	36726.7755    	1463    
262  	272.6722      	36674.0751    	1464    
263  	273.0635      	36621.5216    	1463    
264  	273.4548      	36569.1144    	1460    
265  	273.8462      	36516.8530    	1461    
266  	274.2376      	36464.7326    	1466    
267  	274.6290      	36412.7608    	1467    
268  	275.0205      	36360.9288    	1468    
269  	275.4120      	36309.2402    	1464    
270  	275.8035      	36257.6943    	1462    
271  	276.1951      	36206.2906    	1462    
272  	276.5867      	36155.0284    	1462    
273  	276.9783      	36103.9072    	1461    
274  	277.3700      	36052.9263    	1461    
275  	277.7617      	36002.0814    	1462    
276  	278.1534      	35951.3796    	1462    
277  	278.5452      	35900.8126    	1463    
278  	278.9370      	35850.3837    	1465    
279  	279.3289      	35800.0924    	1464    
280  	279.7208      	35749.9381    	1465    
281  	280.1127      	35699.9202    	1469    
282  	280.5046      	35650.0382    	1467    
283  	280.8966      	35600.2916    	1467    
284  	281.2886      	35550.6758    	1467    
285  	281.6806      	35501.1982    	1468    
286  	282.0727      	35451.8504    	1467    
287  	282.4648      	35402.6358    	1463    
288  	282.8570      	35353.5539    	1462    
289  	283.2491      	35304.6078    	1462    
290  	283.6414      	35255.7857    	1467    
291  	284.0336      	35207.0985    	1471    
292  	284.4259      	35158.5418    	1472    
293  	284.8182      	35110.1150    	1473    
294  	285.2106      	35061.8140    	1473    
295  	285.6029      	35013.6457    	1474    
296  	285.9954      	34965.6021    	1474    
297  	286.3878      	34917.6864    	1474    
298  	286.7803      	34869.8982    	1474    
299  	287.1728      	34822.2369    	1473    
300  	287.5654      	34774.7020    	1473    
301  	287.9579      	34727.2930    	1473    
302  	288.3506      	34680.0058    	1469    
303  	288.7432      	34632.8472    	1470    
304  	289.1359      	34585.8094    	1470    
305  	289.5286      	34538.8992    	1470    
306  	289.9214      	34492.1088    	1472    
307  	290.3142      	34445.4413    	1472    
308  	290.7070      	34398.8964    	1473    
309  	291.0999      	34352.4735    	1474    
310  	291.4927      	34306.1721    	1474    
311  	291.8857      	34259.9918    	1474    
312  	292.2786      	34213.9285    	1469    
313  	292.6716      	34167.9889    	1466    
314  	293.0646      	34122.1654    	1465    
315  	293.4577      	34076.4647    	1466    
316  	293.8508      	34030.8791    	1466    
317  	294.2439      	33985.4118    	1466    
318  	294.6371      	33940.0624    	1465    
319  	295.0302      	33894.8302    	1465    
320  	295.4235      	33849.7150    	1466    
321  	295.8167      	33804.7128    	1467    
322  	296.2100      	33759.8300    	1467    
323  	296.6033      	33715.0629    	1468    
324  	296.9967      	33670.4073    	1471    
325  	297.3901      	33625.8665    	1471    
326  	297.7835      	33581.4399    	1471    
327  	298.1770      	33537.1271    	1468    
328  	298.5705      	33492.9276    	1468    
329  	298.9640      	33448.8411    	1467    
330  	299.3576      	33404.8671    	1466    
331  	299.7512      	33361.0052    	1467    
332  	300.1448      	33317.2516    	1466    
333  	300.5385      	33273.6125    	1469    
334  	300.9322      	33230.0809    	1471    
335  	301.3259      	33186.6630    	1472    
336  	301.7196      	33143.3518    	1472    
337  	302.1134      	33100.1501    	1472    
338  	302.5073      	33057.0575    	1472    
339  	302.9011      	33014.0737    	1473    
340  	303.2950      	32971.1949    	1472    
341  	303.6890      	32928.4273    	1471    
342  	304.0829      	32885.7672    	1470    
343  	304.4769      	32843.2110    	1470    
344  	304.8709      	32800.7647    	1472    
345  	305.2650      	32758.4214    	1469    
346  	305.6591      	32716.1841    	1468    
347  	306.0533      	32674.0523    	1468    
348  	306.4474      	32632.0256    	1468    
349  	306.8416      	32590.1037    	1468    
350  	307.2358      	32548.2860    	1465    
351  	307.6301      	32506.5724    	1463    
352  	308.0244      	32464.9591    	1461    
353  	308.4187      	32423.4522    	1462    
354  	308.8131      	32382.0449    	1463    
355  	309.2075      	32340.7400    	1464    
356  	309.6019      	32299.5404    	1464    
357  	309.9964      	32258.4392    	1463    
358  	310.3909      	32217.4394    	1462    
359  	310.7854      	32176.5405    	1462    
360  	311.1800      	32135.7390    	1461    
361  	311.5746      	32095.0408    	1463    
362  	311.9692      	32054.4425    	1467    
363  	312.3639      	32013.9404    	1468    
364  	312.7586      	31973.5406    	1468    
365  	313.1534      	31933.2365    	1464    
366  	313.5481      	31893.0307    	1465    
367  	313.9429      	31852.9229    	1464    
368  	314.3378      	31812.9127    	1464    
369  	314.7326      	31772.9999    	1464    
370  	315.1275      	31733.1840    	1463    
371  	315.5225      	31693.4648    	1467    
372  	315.9174      	31653.8417    	1471    
373  	316.3124      	31614.3116    	1472    
374  	316.7075      	31574.8800    	1471    
375  	317.1025      	31535.5406    	1471    
376  	317.4977      	31496.2961    	1470    
377  	317.8928      	31457.1491    	1470    
378  	318.2879      	31418.0933    	1471    
379  	318.6831      	31379.1314    	1472    
380  	319.0784      	31340.2630    	1471    
381  	319.4737      	31301.4847    	1471    
382  	319.8690      	31262.8024    	1472    
383  	320.2643      	31224.2125    	1468    
384  	320.6597      	31185.7118    	1468    
385  	321.0551      	31147.3060    	1468    
386  	321.4505      	31108.9887    	1468    
387  	321.8460      	31070.7627    	1472    
388  	322.2415      	31032.6275    	1473    
389  	322.6370      	30994.5829    	1473    
390  	323.0326      	30956.6286    	1470    
391  	323.4282      	30918.7642    	1469    
392  	323.8238      	30880.9894    	1469    
393  	324.2195      	30843.3038    	1468    
394  	324.6152      	30805.7044    	1467    
395  	325.0109      	30768.1965    	1466    
396  	325.4067      	30730.7740    	1466    
397  	325.8025      	30693.4425    	1465    
398  	326.1983      	30656.1958    	1464    
399  	326.5942      	30619.0366    	1464    
400  	326.9901      	30581.9645    	1464    
401  	327.3860      	30544.9792    	1464    
402  	327.7820      	30508.0804    	1468    
403  	328.1780      	30471.2678    	1466    
404  	328.5741      	30434.5383    	1466    
405  	328.9701      	30397.8972    	1465    
406  	329.3662      	30361.3387    	1465    
407  	329.7624      	30324.8679    	1464    
408  	330.1585      	30288.4791    	1460    
409  	330.5547      	30252.1747    	1458    
410  	330.9510      	30215.9572    	1457    
411  	331.3472      	30179.8208    	1459    
412  	331.7435      	30143.7680    	1461    
413  	332.1399      	30107.7956    	1461    
414  	332.5363      	30071.9090    	1461    
415  	332.9326      	30036.1051    	1461    
416  	333.3291      	30000.3809    	1461    
417  	333.7256      	29964.7415    	1462    
418  	334.1221      	29929.1812    	1463    
419  	334.5186      	29893.7053    	1464    
420  	334.9152      	29858.3079    	1464    
421  	335.3118      	29822.9915    	1464    
422  	335.7084      	29787.7559    	1463    
423  	336.1051      	29752.6007    	1459    
424  	336.5018      	29717.5257    	1460    
425  	336.8985      	29682.5306    	1464    
426  	337.2953      	29647.6152    	1463    
427  	337.6921      	29612.7764    	1464    
428  	338.0889      	29578.0195    	1461    
